SpectraSuite Data File
++++++++++++++++++++++++++++++++++++
Date: Tue Mar 29 10:35:07 CEST 2016
User: IPCE
Dark Spectrum Present: Yes
Reference Spectrum Present: Yes
Number of Sampled Component Spectra: 1
Spectrometers: HR+C0708
Integration Time (usec): 1000 (HR+C0708)
Spectra Averaged: 10 (HR+C0708)
Boxcar Smoothing: 0 (HR+C0708)
Correct for Electrical Dark: No (HR+C0708)
Strobe/Lamp Enabled: No (HR+C0708)
Correct for Detector Non-linearity: No (HR+C0708)
Correct for Stray Light: No (HR+C0708)
Number of Pixels in Processed Spectrum: 2048
>>>>>Begin Processed Spectral Data<<<<<
188.76	0.356
189.23	-0.130
189.70	0.583
190.17	0.865
190.64	0.753
191.12	-0.289
191.59	0.190
192.06	-0.065
192.53	0.276
193.01	0.326
193.48	0.588
193.95	0.551
194.42	0.959
194.90	0.616
195.37	0.458
195.84	0.227
196.31	0.290
196.78	0.516
197.26	0.199
197.73	0.683
198.20	-0.000
198.67	-0.195
199.14	0.287
199.62	-0.000
200.09	0.462
200.56	0.190
201.03	0.202
201.50	0.206
201.97	0.220
202.45	0.120
202.92	0.301
203.39	0.304
203.86	0.215
204.33	0.232
204.80	0.321
205.28	0.209
205.75	0.292
206.22	0.310
206.69	0.178
207.16	0.262
207.63	0.156
208.11	0.213
208.58	0.252
209.05	0.135
209.52	0.210
209.99	0.189
210.46	0.295
210.93	0.355
211.41	0.220
211.88	0.399
212.35	0.307
212.82	0.314
213.29	0.296
213.76	0.273
214.23	0.317
214.70	0.403
215.18	0.445
215.65	0.332
216.12	0.494
216.59	0.404
217.06	0.478
217.53	0.502
218.00	0.450
218.47	0.567
218.94	0.526
219.41	0.453
219.89	0.651
220.36	0.642
220.83	0.758
221.30	0.631
221.77	0.649
222.24	0.698
222.71	0.774
223.18	0.770
223.65	0.814
224.12	0.952
224.59	0.882
225.06	0.922
225.54	0.956
226.01	0.984
226.48	1.092
226.95	1.077
227.42	1.256
227.89	1.200
228.36	1.126
228.83	1.444
229.30	1.376
229.77	1.309
230.24	1.393
230.71	1.507
231.18	1.638
231.65	1.508
232.12	1.513
232.59	1.534
233.06	1.614
233.53	1.564
234.00	1.755
234.47	1.731
234.94	1.685
235.41	1.723
235.88	1.725
236.35	1.932
236.82	1.860
237.29	1.814
237.76	1.850
238.23	1.938
238.70	1.915
239.17	1.941
239.64	2.049
240.11	2.000
240.58	1.987
241.05	2.057
241.52	2.070
241.99	2.067
242.46	1.997
242.93	2.167
243.40	2.137
243.87	2.039
244.34	2.098
244.81	2.097
245.28	2.175
245.75	2.066
246.22	2.115
246.69	2.216
247.16	2.125
247.63	2.167
248.10	2.114
248.57	2.170
249.04	2.249
249.51	2.107
249.98	2.223
250.45	2.072
250.92	2.088
251.39	2.084
251.85	2.098
252.32	2.050
252.79	1.943
253.26	1.960
253.73	1.922
254.20	1.850
254.67	1.756
255.14	1.687
255.61	1.631
256.08	1.520
256.55	1.466
257.02	1.402
257.49	1.351
257.95	1.290
258.42	1.254
258.89	1.207
259.36	1.157
259.83	1.129
260.30	1.082
260.77	1.054
261.24	1.019
261.71	0.990
262.17	0.960
262.64	0.930
263.11	0.902
263.58	0.878
264.05	0.856
264.52	0.828
264.99	0.806
265.46	0.784
265.92	0.765
266.39	0.741
266.86	0.720
267.33	0.705
267.80	0.681
268.27	0.662
268.74	0.651
269.20	0.628
269.67	0.613
270.14	0.601
270.61	0.585
271.08	0.571
271.55	0.553
272.01	0.540
272.48	0.530
272.95	0.520
273.42	0.504
273.89	0.494
274.36	0.481
274.82	0.468
275.29	0.457
275.76	0.447
276.23	0.440
276.70	0.428
277.16	0.416
277.63	0.409
278.10	0.398
278.57	0.391
279.04	0.380
279.50	0.375
279.97	0.366
280.44	0.355
280.91	0.348
281.38	0.343
281.84	0.335
282.31	0.329
282.78	0.321
283.25	0.315
283.72	0.307
284.18	0.305
284.65	0.295
285.12	0.289
285.59	0.283
286.05	0.276
286.52	0.270
286.99	0.265
287.46	0.257
287.92	0.249
288.39	0.241
288.86	0.235
289.33	0.228
289.79	0.221
290.26	0.219
290.73	0.210
291.20	0.204
291.66	0.201
292.13	0.196
292.60	0.193
293.07	0.187
293.53	0.184
294.00	0.177
294.47	0.175
294.93	0.168
295.40	0.164
295.87	0.161
296.34	0.156
296.80	0.153
297.27	0.153
297.74	0.149
298.20	0.142
298.67	0.139
299.14	0.137
299.60	0.135
300.07	0.133
300.54	0.128
301.01	0.125
301.47	0.124
301.94	0.119
302.41	0.117
302.87	0.117
303.34	0.113
303.81	0.110
304.27	0.106
304.74	0.108
305.21	0.103
305.67	0.100
306.14	0.097
306.61	0.094
307.07	0.092
307.54	0.088
308.01	0.089
308.47	0.084
308.94	0.083
309.40	0.082
309.87	0.080
310.34	0.076
310.80	0.078
311.27	0.077
311.74	0.074
312.20	0.071
312.67	0.072
313.13	0.070
313.60	0.067
314.07	0.067
314.53	0.065
315.00	0.065
315.47	0.064
315.93	0.061
316.40	0.059
316.86	0.060
317.33	0.057
317.80	0.059
318.26	0.059
318.73	0.057
319.19	0.055
319.66	0.052
320.13	0.051
320.59	0.055
321.06	0.050
321.52	0.050
321.99	0.049
322.45	0.052
322.92	0.047
323.39	0.049
323.85	0.048
324.32	0.047
324.78	0.047
325.25	0.045
325.71	0.047
326.18	0.046
326.64	0.046
327.11	0.044
327.58	0.041
328.04	0.041
328.51	0.042
328.97	0.042
329.44	0.040
329.90	0.037
330.37	0.038
330.83	0.039
331.30	0.037
331.76	0.038
332.23	0.038
332.69	0.037
333.16	0.032
333.62	0.033
334.09	0.036
334.56	0.033
335.02	0.034
335.49	0.034
335.95	0.034
336.42	0.031
336.88	0.033
337.35	0.030
337.81	0.029
338.28	0.031
338.74	0.029
339.20	0.029
339.67	0.030
340.13	0.027
340.60	0.026
341.06	0.028
341.53	0.026
341.99	0.025
342.46	0.028
342.92	0.025
343.39	0.023
343.85	0.027
344.32	0.023
344.78	0.026
345.25	0.023
345.71	0.026
346.17	0.024
346.64	0.024
347.10	0.021
347.57	0.022
348.03	0.025
348.50	0.022
348.96	0.024
349.43	0.023
349.89	0.022
350.35	0.022
350.82	0.023
351.28	0.021
351.75	0.024
352.21	0.017
352.67	0.025
353.14	0.021
353.60	0.021
354.07	0.022
354.53	0.021
355.00	0.018
355.46	0.018
355.92	0.018
356.39	0.020
356.85	0.023
357.31	0.019
357.78	0.017
358.24	0.018
358.71	0.018
359.17	0.017
359.63	0.016
360.10	0.021
360.56	0.017
361.03	0.018
361.49	0.019
361.95	0.017
362.42	0.017
362.88	0.016
363.34	0.016
363.81	0.017
364.27	0.017
364.73	0.014
365.20	0.018
365.66	0.018
366.12	0.014
366.59	0.016
367.05	0.017
367.51	0.015
367.98	0.014
368.44	0.017
368.90	0.016
369.37	0.017
369.83	0.013
370.29	0.013
370.76	0.015
371.22	0.013
371.68	0.015
372.15	0.013
372.61	0.015
373.07	0.014
373.54	0.013
374.00	0.012
374.46	0.014
374.92	0.014
375.39	0.015
375.85	0.014
376.31	0.012
376.78	0.011
377.24	0.012
377.70	0.011
378.16	0.017
378.63	0.016
379.09	0.013
379.55	0.012
380.01	0.013
380.48	0.013
380.94	0.012
381.40	0.011
381.87	0.014
382.33	0.014
382.79	0.010
383.25	0.012
383.72	0.013
384.18	0.013
384.64	0.011
385.10	0.010
385.56	0.012
386.03	0.012
386.49	0.011
386.95	0.009
387.41	0.013
387.88	0.013
388.34	0.013
388.80	0.012
389.26	0.012
389.72	0.013
390.19	0.011
390.65	0.013
391.11	0.013
391.57	0.010
392.04	0.011
392.50	0.011
392.96	0.010
393.42	0.010
393.88	0.010
394.34	0.011
394.81	0.010
395.27	0.012
395.73	0.011
396.19	0.011
396.65	0.011
397.12	0.010
397.58	0.012
398.04	0.011
398.50	0.011
398.96	0.009
399.42	0.010
399.89	0.010
400.35	0.010
400.81	0.013
401.27	0.011
401.73	0.010
402.19	0.009
402.65	0.010
403.12	0.009
403.58	0.010
404.04	0.013
404.50	0.008
404.96	0.010
405.42	0.007
405.88	0.010
406.34	0.011
406.81	0.011
407.27	0.008
407.73	0.010
408.19	0.010
408.65	0.008
409.11	0.008
409.57	0.013
410.03	0.010
410.49	0.008
410.96	0.011
411.42	0.011
411.88	0.009
412.34	0.010
412.80	0.011
413.26	0.009
413.72	0.010
414.18	0.009
414.64	0.010
415.10	0.011
415.56	0.010
416.02	0.009
416.48	0.009
416.95	0.009
417.41	0.008
417.87	0.010
418.33	0.008
418.79	0.008
419.25	0.009
419.71	0.009
420.17	0.009
420.63	0.008
421.09	0.008
421.55	0.008
422.01	0.008
422.47	0.007
422.93	0.008
423.39	0.009
423.85	0.009
424.31	0.008
424.77	0.008
425.23	0.009
425.69	0.009
426.15	0.007
426.61	0.009
427.07	0.011
427.53	0.007
427.99	0.007
428.45	0.008
428.91	0.009
429.37	0.009
429.83	0.012
430.29	0.008
430.75	0.006
431.21	0.007
431.67	0.008
432.13	0.009
432.59	0.007
433.05	0.010
433.51	0.010
433.97	0.007
434.43	0.007
434.89	0.010
435.35	0.009
435.81	0.007
436.27	0.006
436.73	0.009
437.19	0.010
437.65	0.008
438.11	0.007
438.57	0.007
439.03	0.009
439.48	0.005
439.94	0.010
440.40	0.008
440.86	0.008
441.32	0.007
441.78	0.010
442.24	0.008
442.70	0.004
443.16	0.007
443.62	0.008
444.08	0.007
444.54	0.010
444.99	0.008
445.45	0.009
445.91	0.007
446.37	0.009
446.83	0.008
447.29	0.007
447.75	0.008
448.21	0.008
448.67	0.008
449.12	0.006
449.58	0.007
450.04	0.008
450.50	0.010
450.96	0.009
451.42	0.009
451.88	0.012
452.34	0.006
452.79	0.007
453.25	0.008
453.71	0.009
454.17	0.006
454.63	0.007
455.09	0.005
455.55	0.007
456.00	0.007
456.46	0.008
456.92	0.009
457.38	0.007
457.84	0.008
458.30	0.008
458.75	0.005
459.21	0.008
459.67	0.006
460.13	0.006
460.59	0.008
461.04	0.006
461.50	0.006
461.96	0.006
462.42	0.007
462.88	0.009
463.33	0.004
463.79	0.007
464.25	0.005
464.71	0.005
465.17	0.005
465.62	0.006
466.08	0.006
466.54	0.005
467.00	0.004
467.46	0.004
467.91	0.004
468.37	0.007
468.83	0.006
469.29	0.007
469.74	0.006
470.20	0.006
470.66	0.005
471.12	0.006
471.57	0.004
472.03	0.006
472.49	0.003
472.95	0.006
473.40	0.007
473.86	0.003
474.32	0.007
474.78	0.006
475.23	0.005
475.69	0.005
476.15	0.004
476.60	0.004
477.06	0.005
477.52	0.006
477.98	0.004
478.43	0.006
478.89	0.005
479.35	0.007
479.80	0.003
480.26	0.003
480.72	0.004
481.18	0.006
481.63	0.005
482.09	0.004
482.55	0.004
483.00	0.005
483.46	0.008
483.92	0.005
484.37	0.005
484.83	0.005
485.29	0.004
485.74	0.005
486.20	0.004
486.66	0.004
487.11	0.004
487.57	0.003
488.03	0.004
488.48	0.003
488.94	0.005
489.40	0.005
489.85	0.006
490.31	0.005
490.77	0.006
491.22	0.005
491.68	0.002
492.13	0.004
492.59	0.005
493.05	0.006
493.50	0.003
493.96	0.004
494.42	0.002
494.87	0.003
495.33	0.003
495.78	0.004
496.24	0.004
496.70	0.004
497.15	0.005
497.61	0.003
498.06	0.003
498.52	0.004
498.98	0.001
499.43	0.004
499.89	0.004
500.34	0.006
500.80	0.003
501.25	0.005
501.71	0.005
502.17	0.004
502.62	0.003
503.08	0.004
503.53	0.003
503.99	0.004
504.44	0.005
504.90	0.004
505.36	0.004
505.81	0.002
506.27	0.002
506.72	0.003
507.18	0.003
507.63	0.002
508.09	-0.000
508.54	0.003
509.00	0.003
509.45	0.004
509.91	0.004
510.36	0.004
510.82	0.004
511.27	0.003
511.73	0.002
512.19	0.003
512.64	0.001
513.10	0.005
513.55	0.002
514.01	0.003
514.46	0.002
514.92	0.003
515.37	0.002
515.83	0.003
516.28	0.003
516.73	0.001
517.19	0.005
517.64	0.004
518.10	0.003
518.55	0.004
519.01	0.002
519.46	0.003
519.92	0.001
520.37	0.003
520.83	0.004
521.28	0.002
521.74	0.002
522.19	0.001
522.65	0.002
523.10	0.001
523.55	0.002
524.01	0.003
524.46	0.003
524.92	0.001
525.37	0.003
525.83	0.004
526.28	0.003
526.73	0.004
527.19	0.002
527.64	0.003
528.10	0.003
528.55	0.001
529.01	0.003
529.46	0.005
529.91	-0.001
530.37	0.002
530.82	0.003
531.28	0.002
531.73	0.002
532.18	0.003
532.64	0.002
533.09	0.004
533.54	0.002
534.00	0.003
534.45	0.002
534.91	0.001
535.36	0.002
535.81	0.002
536.27	0.001
536.72	0.002
537.17	0.002
537.63	0.002
538.08	0.005
538.54	0.002
538.99	0.004
539.44	0.003
539.90	0.002
540.35	0.003
540.80	0.001
541.26	0.002
541.71	0.002
542.16	0.002
542.62	0.001
543.07	0.002
543.52	0.003
543.98	0.002
544.43	0.003
544.88	0.001
545.34	0.002
545.79	0.002
546.24	0.001
546.69	0.000
547.15	0.002
547.60	0.002
548.05	0.002
548.51	0.001
548.96	0.002
549.41	-0.001
549.86	0.003
550.32	0.000
550.77	-0.001
551.22	0.003
551.68	0.002
552.13	-0.000
552.58	0.001
553.03	0.002
553.49	0.003
553.94	0.001
554.39	0.002
554.84	0.000
555.30	0.001
555.75	0.001
556.20	0.001
556.65	0.002
557.11	0.001
557.56	0.001
558.01	0.002
558.46	0.000
558.92	0.001
559.37	0.001
559.82	-0.000
560.27	0.001
560.72	0.001
561.18	-0.000
561.63	0.000
562.08	0.000
562.53	0.001
562.99	0.001
563.44	0.000
563.89	-0.000
564.34	0.001
564.79	0.001
565.25	0.000
565.70	0.001
566.15	0.000
566.60	0.001
567.05	0.001
567.50	0.001
567.96	-0.000
568.41	0.000
568.86	0.001
569.31	0.000
569.76	-0.001
570.21	0.001
570.67	0.002
571.12	0.002
571.57	0.000
572.02	0.001
572.47	0.000
572.92	-0.000
573.37	0.000
573.83	0.001
574.28	-0.001
574.73	0.001
575.18	0.000
575.63	-0.000
576.08	0.001
576.53	-0.000
576.98	-0.000
577.44	0.001
577.89	0.000
578.34	-0.001
578.79	0.000
579.24	0.001
579.69	-0.001
580.14	0.000
580.59	0.001
581.04	-0.001
581.49	-0.000
581.95	0.000
582.40	-0.001
582.85	-0.001
583.30	-0.001
583.75	0.001
584.20	-0.000
584.65	-0.000
585.10	0.000
585.55	0.000
586.00	-0.000
586.45	-0.000
586.90	0.000
587.35	-0.001
587.80	0.000
588.25	0.000
588.71	-0.001
589.16	-0.000
589.61	0.000
590.06	-0.000
590.51	-0.001
590.96	-0.002
591.41	-0.000
591.86	0.001
592.31	0.000
592.76	-0.000
593.21	-0.002
593.66	-0.001
594.11	-0.003
594.56	-0.001
595.01	-0.000
595.46	-0.001
595.91	-0.001
596.36	-0.000
596.81	-0.001
597.26	0.001
597.71	0.000
598.16	-0.002
598.61	-0.001
599.06	-0.001
599.51	-0.001
599.96	-0.001
600.41	-0.001
600.86	0.001
601.31	-0.001
601.76	-0.002
602.21	-0.000
602.65	-0.001
603.10	-0.001
603.55	-0.000
604.00	-0.002
604.45	-0.003
604.90	-0.002
605.35	-0.003
605.80	-0.003
606.25	-0.002
606.70	-0.000
607.15	-0.001
607.60	-0.002
608.05	-0.002
608.50	-0.002
608.95	-0.003
609.39	-0.001
609.84	-0.002
610.29	-0.003
610.74	-0.001
611.19	-0.001
611.64	-0.001
612.09	-0.003
612.54	-0.001
612.99	-0.001
613.44	-0.001
613.88	-0.002
614.33	-0.004
614.78	-0.001
615.23	-0.001
615.68	-0.003
616.13	-0.001
616.58	-0.001
617.03	-0.003
617.47	-0.002
617.92	-0.001
618.37	-0.000
618.82	0.000
619.27	-0.002
619.72	-0.003
620.17	-0.002
620.61	-0.002
621.06	-0.003
621.51	-0.001
621.96	-0.002
622.41	-0.003
622.86	-0.003
623.30	-0.002
623.75	-0.002
624.20	-0.002
624.65	-0.003
625.10	-0.002
625.54	-0.002
625.99	-0.002
626.44	-0.002
626.89	-0.001
627.34	-0.002
627.78	-0.003
628.23	-0.002
628.68	-0.002
629.13	-0.001
629.58	0.000
630.02	-0.001
630.47	-0.002
630.92	-0.001
631.37	-0.002
631.81	-0.001
632.26	-0.002
632.71	-0.000
633.16	-0.002
633.61	-0.002
634.05	-0.003
634.50	-0.002
634.95	-0.001
635.40	-0.002
635.84	-0.001
636.29	-0.002
636.74	-0.001
637.18	-0.002
637.63	-0.004
638.08	-0.002
638.53	-0.003
638.97	-0.002
639.42	-0.002
639.87	-0.002
640.32	-0.002
640.76	-0.002
641.21	-0.003
641.66	-0.005
642.10	-0.004
642.55	-0.004
643.00	-0.002
643.44	-0.003
643.89	-0.003
644.34	-0.002
644.79	-0.002
645.23	-0.003
645.68	-0.002
646.13	-0.002
646.57	-0.003
647.02	-0.003
647.47	-0.005
647.91	-0.003
648.36	-0.003
648.81	-0.003
649.25	-0.003
649.70	-0.001
650.15	-0.003
650.59	-0.003
651.04	-0.002
651.48	-0.003
651.93	-0.004
652.38	-0.002
652.82	-0.003
653.27	-0.004
653.72	-0.002
654.16	-0.005
654.61	-0.003
655.06	-0.003
655.50	-0.002
655.95	-0.005
656.39	-0.004
656.84	-0.001
657.29	-0.000
657.73	-0.002
658.18	-0.003
658.62	-0.004
659.07	-0.004
659.52	-0.003
659.96	-0.004
660.41	-0.003
660.85	-0.002
661.30	-0.004
661.74	-0.005
662.19	-0.004
662.64	-0.002
663.08	-0.002
663.53	-0.004
663.97	-0.004
664.42	-0.003
664.86	-0.004
665.31	-0.002
665.75	-0.003
666.20	-0.002
666.65	-0.003
667.09	-0.005
667.54	-0.003
667.98	-0.004
668.43	-0.005
668.87	-0.003
669.32	-0.002
669.76	-0.003
670.21	-0.004
670.65	-0.003
671.10	-0.004
671.54	-0.005
671.99	-0.005
672.43	-0.004
672.88	-0.003
673.32	-0.004
673.77	-0.003
674.21	-0.004
674.66	-0.005
675.10	-0.004
675.55	-0.003
675.99	-0.002
676.44	-0.003
676.88	-0.004
677.33	-0.003
677.77	-0.003
678.22	-0.004
678.66	-0.003
679.11	-0.004
679.55	-0.005
679.99	-0.006
680.44	-0.006
680.88	-0.004
681.33	-0.004
681.77	-0.004
682.22	-0.004
682.66	-0.004
683.11	-0.006
683.55	-0.005
683.99	-0.004
684.44	-0.003
684.88	-0.003
685.33	-0.006
685.77	-0.002
686.21	-0.003
686.66	-0.004
687.10	-0.005
687.55	-0.005
687.99	-0.006
688.44	-0.002
688.88	-0.003
689.32	-0.004
689.77	-0.005
690.21	-0.003
690.65	-0.005
691.10	-0.004
691.54	-0.006
691.99	-0.003
692.43	-0.004
692.87	-0.005
693.32	-0.004
693.76	-0.003
694.20	-0.003
694.65	-0.003
695.09	-0.005
695.53	-0.004
695.98	-0.004
696.42	-0.004
696.86	-0.002
697.31	-0.003
697.75	-0.003
698.19	-0.005
698.64	-0.004
699.08	-0.005
699.52	-0.003
699.97	-0.003
700.41	-0.004
700.85	-0.004
701.30	-0.005
701.74	-0.003
702.18	-0.004
702.63	-0.004
703.07	-0.005
703.51	-0.005
703.96	-0.004
704.40	-0.005
704.84	-0.006
705.28	-0.004
705.73	-0.004
706.17	-0.003
706.61	-0.006
707.06	-0.004
707.50	-0.003
707.94	-0.005
708.38	-0.005
708.83	-0.005
709.27	-0.003
709.71	-0.004
710.15	-0.004
710.60	-0.002
711.04	-0.004
711.48	-0.003
711.92	-0.003
712.37	-0.003
712.81	-0.006
713.25	-0.004
713.69	-0.004
714.13	-0.004
714.58	-0.004
715.02	-0.002
715.46	-0.002
715.90	-0.002
716.35	0.000
716.79	-0.001
717.23	-0.003
717.67	-0.002
718.11	-0.005
718.56	-0.001
719.00	-0.003
719.44	-0.003
719.88	-0.005
720.32	-0.003
720.76	-0.003
721.21	-0.001
721.65	-0.005
722.09	-0.003
722.53	-0.002
722.97	-0.002
723.41	-0.003
723.86	-0.004
724.30	-0.003
724.74	-0.002
725.18	-0.001
725.62	-0.002
726.06	-0.002
726.50	-0.003
726.95	-0.004
727.39	-0.001
727.83	-0.002
728.27	-0.002
728.71	-0.002
729.15	-0.002
729.59	-0.000
730.03	-0.002
730.48	-0.001
730.92	-0.003
731.36	-0.000
731.80	-0.001
732.24	-0.001
732.68	-0.003
733.12	-0.002
733.56	-0.003
734.00	-0.000
734.44	0.002
734.89	-0.002
735.33	-0.002
735.77	-0.001
736.21	-0.002
736.65	0.001
737.09	-0.000
737.53	-0.001
737.97	0.000
738.41	0.002
738.85	-0.001
739.29	0.001
739.73	-0.001
740.17	0.001
740.61	0.003
741.05	0.003
741.49	0.002
741.93	0.002
742.37	0.002
742.81	0.003
743.26	0.004
743.70	0.001
744.14	0.002
744.58	0.001
745.02	0.003
745.46	0.003
745.90	0.002
746.34	0.000
746.78	-0.000
747.22	-0.001
747.66	0.001
748.10	-0.002
748.54	-0.001
748.98	-0.003
749.42	0.001
749.86	0.003
750.29	-0.001
750.73	0.002
751.17	-0.001
751.61	0.000
752.05	0.002
752.49	0.002
752.93	0.001
753.37	-0.000
753.81	0.004
754.25	-0.001
754.69	0.002
755.13	-0.001
755.57	-0.001
756.01	-0.001
756.45	-0.000
756.89	-0.002
757.33	0.002
757.77	0.002
758.21	-0.000
758.64	0.001
759.08	0.002
759.52	0.002
759.96	0.001
760.40	-0.000
760.84	0.000
761.28	-0.000
761.72	0.000
762.16	0.002
762.60	0.001
763.03	-0.002
763.47	-0.001
763.91	0.001
764.35	-0.002
764.79	-0.001
765.23	-0.001
765.67	-0.001
766.11	0.000
766.54	0.001
766.98	0.002
767.42	-0.000
767.86	0.001
768.30	0.001
768.74	0.000
769.17	0.001
769.61	0.001
770.05	-0.001
770.49	0.000
770.93	-0.002
771.37	-0.000
771.80	-0.000
772.24	-0.001
772.68	0.000
773.12	0.004
773.56	-0.001
774.00	-0.003
774.43	-0.000
774.87	-0.002
775.31	0.004
775.75	0.000
776.19	0.001
776.62	-0.000
777.06	-0.001
777.50	-0.002
777.94	-0.000
778.37	0.000
778.81	0.005
779.25	0.002
779.69	-0.002
780.13	0.002
780.56	-0.000
781.00	-0.001
781.44	0.003
781.88	0.001
782.31	0.001
782.75	0.004
783.19	-0.003
783.63	0.001
784.06	-0.001
784.50	-0.001
784.94	0.000
785.37	0.003
785.81	-0.003
786.25	-0.006
786.69	-0.001
787.12	-0.004
787.56	-0.002
788.00	-0.004
788.43	0.001
788.87	0.003
789.31	0.000
789.75	0.002
790.18	-0.000
790.62	-0.001
791.06	-0.001
791.49	-0.002
791.93	-0.003
792.37	0.002
792.80	0.000
793.24	0.001
793.68	-0.002
794.11	-0.001
794.55	0.001
794.99	0.002
795.42	0.001
795.86	0.001
796.30	-0.001
796.73	-0.001
797.17	-0.001
797.61	0.003
798.04	0.001
798.48	0.001
798.91	-0.000
799.35	0.003
799.79	0.001
800.22	0.004
800.66	0.002
801.10	0.002
801.53	0.001
801.97	0.002
802.40	0.002
802.84	0.002
803.28	0.004
803.71	0.002
804.15	0.004
804.58	0.004
805.02	0.004
